  Ann..Exc..Prob...EMA.Est....V.log.EMA....At.Site.Est....CI.Low......CI.High
1           -----------------------------------------------------------------------------
2        EMA-Q 0.9999000       252.54      0.27418       252.54         9.49      1048.65
3        EMA-Q 0.9995000       567.83      0.18939       567.83        33.72      1822.36
4        EMA-Q 0.9990000       808.04      0.15757       808.04        58.52      2321.62
5        EMA-Q 0.9980000      1153.24      0.12859      1153.24       102.00      2966.93
6        EMA-Q 0.9950000      1855.78      0.09464      1855.78       214.25      4127.43
7        EMA-Q 0.9900000      2673.62      0.07229      2673.62       378.51      5328.22
8        EMA-Q 0.9800000      3874.61      0.05282      3874.61       678.29      6921.98
9        EMA-Q 0.9750000      4372.88      0.04717      4372.88       842.63      7542.86
10       EMA-Q 0.9600000      5658.93      0.03627      5658.93      1336.16      9068.07
11       EMA-Q 0.9500000      6406.34      0.03156      6406.34      1666.79      9914.28
12       EMA-Q 0.9000000      9501.15      0.01892      9501.15      3351.16     13205.40
13       EMA-Q 0.8000000     14363.99      0.00932     14363.99      6903.13     17963.37
14       EMA-Q 0.7000000     18560.84      0.00517     18560.84     10709.99     21862.93
15       EMA-Q 0.6667000     19890.50      0.00428     19890.50     12033.76     23078.79
16       EMA-Q 0.6000000     22502.93      0.00293     22502.93     14765.41     25458.90
17       EMA-Q 0.5704000     23650.73      0.00247     23650.73     16009.40     26506.30
18       EMA-Q 0.5000000     26380.05      0.00162     26380.05     19047.13     29017.74
19       EMA-Q 0.4292000     29162.15      0.00103     29162.15     22186.12     31652.65
20       EMA-Q 0.4000000     30332.07      0.00085     30332.07     23510.73     32799.45
21       EMA-Q 0.3000000     34512.03      0.00046     34512.03     30030.39     37191.32
22       EMA-Q 0.2000000     39160.78      0.00035     39160.78     36549.41     42609.89
23       EMA-Q 0.1000000     44847.98      0.00053     44847.98     41942.24     52515.87
24       EMA-Q 0.0500000     48675.95      0.00081     48675.95     45328.71     61398.91
25       EMA-Q 0.0400000     49630.44      0.00090     49630.44     46155.43     63325.96
26       EMA-Q 0.0250000     51305.26      0.00107     51305.26     47586.36     66833.47
27       EMA-Q 0.0200000     51966.44      0.00114     51966.44     48143.52     68272.14
28       EMA-Q 0.0100000     53593.01      0.00135     53593.01     49491.67     71990.64
29       EMA-Q 0.0050000     54732.16      0.00152     54732.16     50412.01     74811.51
30       EMA-Q 0.0020000     55736.49      0.00169     55736.49     51201.37     77538.98
31       EMA-Q 0.0010000     56240.84      0.00179     56240.84     51587.72     79042.93
32       EMA-Q 0.0005000     56596.96      0.00187     56596.96     51855.74     80188.96
33       EMA-Q 0.0001000     57072.20      0.00199     57072.20     52207.80     81897.88
34       EMA-Q 0.0000500     57184.99      0.00202     57184.99     52291.33     82354.80
35       EMA-Q 0.0000200     57285.11      0.00206     57285.11     52366.68     82790.65
36       EMA-Q 0.0000100     57335.75      0.00208     57335.75     52405.97     83027.39
37       EMA-Q 0.0000050     57371.62      0.00209     57371.62     52434.91     83205.14
38       EMA-Q 0.0000020     57403.18      0.00210     57403.18     57403.18     87861.15
39       EMA-Q 0.0000010     57419.39*************     57419.39     57403.18     Infinity
40       EMA-Q 0.0000005     57431.70*************     57431.70     57403.18     Infinity
41       EMA-Q 0.0000002     57442.15      0.00212     57442.15     57442.15     Infinity
42       EMA-Q 0.0000001     57445.19      0.00213     57445.19     57445.19     Infinity
43                                                                                       
44                                                                                       
45                                                                                       
46       ********************************************************************************
47                                                                                       
48                                                                                      1
49                                                                                       
50                                                                                       
51                                                          PERCEPTION THRESHOLDS FOR EMA
52                                                          -----------------------------
53                                                                                       
54                          -------------------------------------------------------------
55                             T   Beg. Year End Year              T_lower        T_upper
56                          -------------------------------------------------------------
57                           1        1900     2018             0.0000        1.00000E+10
58                                                                                       
59                                                                                       
60                                                                                       
61                                                 THRESHOLD EXCEED. PROBS & CENSORED OBS
62                                                 --------------------------------------
63                                                                                       
64                          -------------------------------------------------------------
65                          Sorted(T)   T_lower      Non-Exc. Prob.    Cens. Obs. below T
66                          -------------------------------------------------------------
67                                 1          2.6164E+04        0.49580                59
68                                                                                       
69                                                                                       
70                                                                                       
71                                                                                       
72                                                             EMA REPRESENTATION OF DATA
73                                                             --------------------------
74                                                                                       
75                                  BIG SANDY RIVER AT BRUCETON, TN                      
76                                                                                       
77       --------------------------------------------------------------------------------
78         Year      Q_obs.     Q_lower     Q_upper    T_lower         T_upper     Q_type
79       --------------------------------------------------------------------------------
80         1900     26164.0      26164.0      26164.0     2.616E+04     1.000E+10    Syst
81         1901     36929.0      36929.0      36929.0     2.616E+04     1.000E+10    Syst
82         1902     14363.0          0.0      26164.0     2.616E+04     1.000E+10    Syst
83                                                                                  . . .
84         1905     20845.0          0.0      26164.0     2.616E+04     1.000E+10    Syst
85         1906     30260.0      30260.0      30260.0     2.616E+04     1.000E+10    Syst
86         1907     42914.0      42914.0      42914.0     2.616E+04     1.000E+10    Syst
87         1908     19762.0          0.0      26164.0     2.616E+04     1.000E+10    Syst
88                                                                                  . . .
89         1913     22291.0          0.0      26164.0     2.616E+04     1.000E+10    Syst
90         1914     38801.0      38801.0      38801.0     2.616E+04     1.000E+10    Syst
91         1915      4876.0          0.0      26164.0     2.616E+04     1.000E+10    Syst
92         1916     39840.0      39840.0      39840.0     2.616E+04     1.000E+10    Syst
93         1917     17943.0          0.0      26164.0     2.616E+04     1.000E+10    Syst
94         1918     40176.0      40176.0      40176.0     2.616E+04     1.000E+10    Syst
95         1919     33149.0      33149.0      33149.0     2.616E+04     1.000E+10    Syst
96         1920     21485.0          0.0      26164.0     2.616E+04     1.000E+10    Syst
97                                                                                  . . .
98         1922     23088.0          0.0      26164.0     2.616E+04     1.000E+10    Syst
99         1923     28102.0      28102.0      28102.0     2.616E+04     1.000E+10    Syst
100        1924     28880.0      28880.0      28880.0     2.616E+04     1.000E+10    Syst
101        1925     35683.0      35683.0      35683.0     2.616E+04     1.000E+10    Syst
102        1926     38128.0      38128.0      38128.0     2.616E+04     1.000E+10    Syst
103        1927     18516.0          0.0      26164.0     2.616E+04     1.000E+10    Syst
104        1928     35095.0      35095.0      35095.0     2.616E+04     1.000E+10    Syst
105        1929     19447.0          0.0      26164.0     2.616E+04     1.000E+10    Syst
106        1930     34636.0      34636.0      34636.0     2.616E+04     1.000E+10    Syst
107        1931     46186.0      46186.0      46186.0     2.616E+04     1.000E+10    Syst
108        1932     40723.0      40723.0      40723.0     2.616E+04     1.000E+10    Syst
109        1933     43807.0      43807.0      43807.0     2.616E+04     1.000E+10    Syst
110        1934     48674.0      48674.0      48674.0     2.616E+04     1.000E+10    Syst
111        1935     45285.0      45285.0      45285.0     2.616E+04     1.000E+10    Syst
112        1936     29932.0      29932.0      29932.0     2.616E+04     1.000E+10    Syst
113        1937     17922.0          0.0      26164.0     2.616E+04     1.000E+10    Syst
114        1938     48793.0      48793.0      48793.0     2.616E+04     1.000E+10    Syst
115        1939     27634.0      27634.0      27634.0     2.616E+04     1.000E+10    Syst
116        1940      5575.0          0.0      26164.0     2.616E+04     1.000E+10    Syst
117        1941     45806.0      45806.0      45806.0     2.616E+04     1.000E+10    Syst
118        1942     38018.0      38018.0      38018.0     2.616E+04     1.000E+10    Syst
119        1943     31160.0      31160.0      31160.0     2.616E+04     1.000E+10    Syst
120        1944     30682.0      30682.0      30682.0     2.616E+04     1.000E+10    Syst
121        1945     25803.0          0.0      26164.0     2.616E+04     1.000E+10    Syst
122        1946      5334.0          0.0      26164.0     2.616E+04     1.000E+10    Syst
123        1947     40440.0      40440.0      40440.0     2.616E+04     1.000E+10    Syst
124        1948     40413.0      40413.0      40413.0     2.616E+04     1.000E+10    Syst
125        1949     32146.0      32146.0      32146.0     2.616E+04     1.000E+10    Syst
126        1950     24687.0          0.0      26164.0     2.616E+04     1.000E+10    Syst
127        1951     48045.0      48045.0      48045.0     2.616E+04     1.000E+10    Syst
128        1952      7707.0          0.0      26164.0     2.616E+04     1.000E+10    Syst
129                                                                                 . . .
130        1954      9103.0          0.0      26164.0     2.616E+04     1.000E+10    Syst
131        1955     44305.0      44305.0      44305.0     2.616E+04     1.000E+10    Syst
132        1956     39077.0      39077.0      39077.0     2.616E+04     1.000E+10    Syst
133        1957     14664.0          0.0      26164.0     2.616E+04     1.000E+10    Syst
134        1958     36439.0      36439.0      36439.0     2.616E+04     1.000E+10    Syst
135        1959     32397.0      32397.0      32397.0     2.616E+04     1.000E+10    Syst
136        1960     27933.0      27933.0      27933.0     2.616E+04     1.000E+10    Syst
137        1961     44678.0      44678.0      44678.0     2.616E+04     1.000E+10    Syst
138        1962     28489.0      28489.0      28489.0     2.616E+04     1.000E+10    Syst
139        1963     36855.0      36855.0      36855.0     2.616E+04     1.000E+10    Syst
140        1964     24686.0          0.0      26164.0     2.616E+04     1.000E+10    Syst
141        1965     34399.0      34399.0      34399.0     2.616E+04     1.000E+10    Syst
142        1966     11941.0          0.0      26164.0     2.616E+04     1.000E+10    Syst
143        1967     48712.0      48712.0      48712.0     2.616E+04     1.000E+10    Syst
144        1968     32579.0      32579.0      32579.0     2.616E+04     1.000E+10    Syst
145        1969      8985.0          0.0      26164.0     2.616E+04     1.000E+10    Syst
146        1970      9820.0          0.0      26164.0     2.616E+04     1.000E+10    Syst
147        1971     40513.0      40513.0      40513.0     2.616E+04     1.000E+10    Syst
148        1972     32099.0      32099.0      32099.0     2.616E+04     1.000E+10    Syst
149        1973     32095.0      32095.0      32095.0     2.616E+04     1.000E+10    Syst
150        1974     16036.0          0.0      26164.0     2.616E+04     1.000E+10    Syst
151        1975      6403.0          0.0      26164.0     2.616E+04     1.000E+10    Syst
152        1976     43570.0      43570.0      43570.0     2.616E+04     1.000E+10    Syst
153        1977     24428.0          0.0      26164.0     2.616E+04     1.000E+10    Syst
154                                                                                 . . .
155        1980     17260.0          0.0      26164.0     2.616E+04     1.000E+10    Syst
156        1981     39893.0      39893.0      39893.0     2.616E+04     1.000E+10    Syst
157        1982     11008.0          0.0      26164.0     2.616E+04     1.000E+10    Syst
158        1983     26523.0      26523.0      26523.0     2.616E+04     1.000E+10    Syst
159        1984     36171.0      36171.0      36171.0     2.616E+04     1.000E+10    Syst
160        1985     11064.0          0.0      26164.0     2.616E+04     1.000E+10    Syst
161        1986     10709.0          0.0      26164.0     2.616E+04     1.000E+10    Syst
162        1987     43128.0      43128.0      43128.0     2.616E+04     1.000E+10    Syst
163        1988     36065.0      36065.0      36065.0     2.616E+04     1.000E+10    Syst
164        1989     21350.0          0.0      26164.0     2.616E+04     1.000E+10    Syst
165        1990     41881.0      41881.0      41881.0     2.616E+04     1.000E+10    Syst
166        1991     25854.0          0.0      26164.0     2.616E+04     1.000E+10    Syst
167                                                                                 . . .
168        1995      5541.0          0.0      26164.0     2.616E+04     1.000E+10    Syst
169        1996     26420.0      26420.0      26420.0     2.616E+04     1.000E+10    Syst
170        1997     20623.0          0.0      26164.0     2.616E+04     1.000E+10    Syst
171                                                                                 . . .
172        2000     11928.0          0.0      26164.0     2.616E+04     1.000E+10    Syst
173        2001     35972.0      35972.0      35972.0     2.616E+04     1.000E+10    Syst
174        2002     29270.0      29270.0      29270.0     2.616E+04     1.000E+10    Syst
175        2003     20787.0          0.0      26164.0     2.616E+04     1.000E+10    Syst
176                                                                                 . . .
177        2005     14832.0          0.0      26164.0     2.616E+04     1.000E+10    Syst
178        2006     46961.0      46961.0      46961.0     2.616E+04     1.000E+10    Syst
179        2007     25100.0          0.0      26164.0     2.616E+04     1.000E+10    Syst
180        2008     38742.0      38742.0      38742.0     2.616E+04     1.000E+10    Syst
181        2009     42655.0      42655.0      42655.0     2.616E+04     1.000E+10    Syst
182        2010     19192.0          0.0      26164.0     2.616E+04     1.000E+10    Syst
183                                                                                 . . .
184        2013     25560.0          0.0      26164.0     2.616E+04     1.000E+10    Syst
185        2014     34393.0      34393.0      34393.0     2.616E+04     1.000E+10    Syst
186        2015     17967.0          0.0      26164.0     2.616E+04     1.000E+10    Syst
187        2016      9536.0          0.0      26164.0     2.616E+04     1.000E+10    Syst
188        2017     44531.0      44531.0      44531.0     2.616E+04     1.000E+10    Syst
189        2018     47994.0      47994.0      47994.0     2.616E+04     1.000E+10    Syst
190                                                                                      
191                                                                                      
192                                                                                      
193                                                         SORTED OBSERVATIONS          
194                                                (~Hirsch/Stedinger Plotting Positions)
195                                                     Alpha for Plotting Postions: 0.00
196                                                 -------------------------------------
197                                                                                      
198                                                                                      
199                                 -----------------------------------------------------
200                                 Year Plot Pos     Obs. Q      Fit Value Q      % Diff
201                                 -----------------------------------------------------
202                                 1938   0.0083    48793.         53947.           9.55
203                                 1967   0.0165    48712.         52473.           7.17
204                                 1934   0.0248    48674.         51331.           5.18
205                                 1951   0.0331    48045.         50360.           4.60
206                                 2018   0.0413    47994.         49498.           3.04
207                                 2006   0.0496    46961.         48713.           3.60
208                                 1931   0.0579    46186.         47986.           3.75
209                                 1941   0.0661    45806.         47306.           3.17
210                                 1935   0.0744    45285.         46662.           2.95
211                                 1961   0.0827    44678.         46050.           2.98
212                                 2017   0.0909    44531.         45465.           2.05
213                                 1955   0.0992    44305.         44902.           1.33
214                                 1933   0.1075    43807.         44359.           1.25
215                                 1976   0.1157    43570.         43834.           0.60
216                                 1987   0.1240    43128.         43325.           0.45
217                                 1907   0.1322    42914.         42830.          -0.20
218                                 2009   0.1405    42655.         42347.          -0.73
219                                 1990   0.1488    41881.         41876.          -0.01
220                                 1932   0.1570    40723.         41415.           1.67
221                                 1971   0.1653    40513.         40964.           1.10
222                                 1947   0.1736    40440.         40522.           0.20
223                                 1948   0.1818    40413.         40088.          -0.81
224                                 1918   0.1901    40176.         39662.          -1.30
225                                 1981   0.1984    39893.         39242.          -1.66
226                                 1916   0.2066    39840.         38830.          -2.60
227                                 1956   0.2149    39077.         38423.          -1.70
228                                 1914   0.2232    38801.         38022.          -2.05
229                                 2008   0.2314    38742.         37626.          -2.97
230                                 1926   0.2397    38128.         37236.          -2.40
231                                 1942   0.2480    38018.         36850.          -3.17
232                                 1901   0.2562    36929.         36468.          -1.26
233                                 1963   0.2645    36855.         36091.          -2.12
234                                 1958   0.2728    36439.         35717.          -2.02
235                                 1984   0.2810    36171.         35348.          -2.33
236                                 1988   0.2893    36065.         34981.          -3.10
237                                 2001   0.2976    35972.         34618.          -3.91
238                                 1925   0.3058    35683.         34259.          -4.16
239                                 1928   0.3141    35095.         33902.          -3.52
240                                 1930   0.3224    34636.         33548.          -3.24
241                                 1965   0.3306    34399.         33196.          -3.62
242                                 2014   0.3389    34393.         32847.          -4.71
243                                 1919   0.3472    33149.         32501.          -1.99
244                                 1968   0.3554    32579.         32156.          -1.31
245                                 1959   0.3637    32397.         31814.          -1.83
246                                 1949   0.3720    32146.         31474.          -2.14
247                                 1972   0.3802    32099.         31135.          -3.10
248                                 1973   0.3885    32095.         30798.          -4.21
249                                 1943   0.3967    31160.         30463.          -2.29
250                                 1944   0.4050    30682.         30130.          -1.83
251                                 1906   0.4133    30260.         29798.          -1.55
252                                 1936   0.4215    29932.         29467.          -1.58
253                                 2002   0.4298    29270.         29138.          -0.45
254                                 1924   0.4381    28880.         28810.          -0.24
255                                 1962   0.4463    28489.         28482.          -0.02
256                                 1923   0.4546    28102.         28156.           0.19
257                                 1960   0.4629    27933.         27831.          -0.37
258                                 1939   0.4711    27634.         27507.          -0.46
259                                 1983   0.4794    26523.         27183.           2.43
260                                 1996   0.4877    26420.         26861.           1.64
261                                 1900   0.4959    26164.         26538.           1.41